#WAVELENGTH FLUX
#---------- ----
2000.914917 2.5658E-14
2002.287964 2.6494E-14
2003.660889 2.5443E-14
2005.033936 2.651E-14
2006.406982 2.8325E-14
2007.780029 2.5961E-14
2009.152954 2.8581E-14
2010.526001 2.8697E-14
2011.899048 2.9287E-14
2013.272095 2.9977E-14
2014.645264 2.8931E-14
2016.018311 2.7978E-14
2017.391357 2.8527E-14
2018.764404 2.9681E-14
2020.137573 3.0164E-14
2021.51062 3.1823E-14
2022.883667 3.1996E-14
2024.256836 3.2532E-14
2025.630005 2.777E-14
2027.003052 3.1756E-14
2028.376221 3.3796E-14
2029.74939 3.3165E-14
2031.122437 3.6103E-14
2032.495605 3.6728E-14
2033.868774 3.4206E-14
2035.241943 3.3621E-14
2036.615112 3.5906E-14
2037.988281 3.6664E-14
2039.36145 3.5982E-14
2040.734619 3.8323E-14
2042.107788 3.8693E-14
2043.481079 4.0045E-14
2044.854248 4.0349E-14
2046.227417 4.1318E-14
2047.600708 4.0599E-14
2048.973877 3.9586E-14
2050.347168 3.8799E-14
2051.720459 3.8929E-14
2053.093506 3.9666E-14
2054.466797 3.8415E-14
2055.840088 3.9166E-14
2057.213379 3.6863E-14
2058.58667 3.4153E-14
2059.959961 3.8261E-14
2061.333252 3.701E-14
2062.706543 3.7652E-14
2064.079834 3.8415E-14
2065.453125 3.903E-14
2066.826416 3.8828E-14
2068.199707 4.0046E-14
2069.572998 4.139E-14
2070.946289 4.2103E-14
2072.31958 4.3158E-14
2073.692871 4.4007E-14
2075.066162 4.4837E-14
2076.439697 4.6883E-14
2077.812988 4.7469E-14
2079.186279 4.5905E-14
2080.55957 4.7776E-14
2081.933105 4.9476E-14
2083.306396 4.7008E-14
2084.679688 4.7348E-14
2086.053223 4.842E-14
2087.426514 4.9629E-14
2088.799805 4.8224E-14
2090.17334 4.9822E-14
2091.546631 4.9787E-14
2092.920166 4.9509E-14
2094.293457 5.0082E-14
2095.666992 5.2056E-14
2097.040283 5.3701E-14
2098.413818 5.2819E-14
2099.787109 5.3924E-14
2101.160645 5.2439E-14
2102.53418 5.341E-14
2103.907471 5.2025E-14
2105.281006 5.4685E-14
2106.654297 5.2186E-14
2108.027832 4.9732E-14
2109.401367 5.1084E-14
2110.774658 5.2321E-14
2112.148193 5.1405E-14
2113.521729 5.2211E-14
2114.895264 5.287E-14
2116.268799 5.6931E-14
2117.64209 5.6441E-14
2119.015625 5.9574E-14
2120.38916 5.8676E-14
2121.762695 5.7609E-14
2123.13623 5.2198E-14
2124.509766 4.7921E-14
2125.883301 5.3162E-14
2127.256836 5.6699E-14
2128.630127 5.6776E-14
2130.003662 5.7025E-14
2131.377197 5.3787E-14
2132.750732 5.3118E-14
2134.124268 5.2505E-14
2135.497803 5.3653E-14
2136.871582 5.7384E-14
2138.245117 5.756E-14
2139.618652 5.6413E-14
2140.992188 6.1619E-14
2142.365723 6.2133E-14
2143.739258 6.3299E-14
2145.112793 6.2116E-14
2146.486328 6.0813E-14
2147.860107 6.0328E-14
2149.233643 6.177E-14
2150.607178 6.0767E-14
2151.980713 6.079E-14
2153.354248 6.3981E-14
2154.728027 6.1853E-14
2156.101562 6.4479E-14
2157.475098 6.1372E-14
2158.848633 5.7945E-14
2160.222412 6.0868E-14
2161.595947 6.2817E-14
2162.969482 6.6753E-14
2164.343262 6.3686E-14
2165.716797 6.2916E-14
2167.090576 6.2506E-14
2168.464111 6.4647E-14
2169.837646 6.7741E-14
2171.211426 6.848E-14
2172.584961 6.716E-14
2173.95874 6.4635E-14
2175.332275 6.5172E-14
2176.706055 6.7742E-14
2178.07959 6.9743E-14
2179.453369 7.1607E-14
2180.826904 7.4304E-14
2182.200684 7.7391E-14
2183.574219 7.6266E-14
2184.947998 7.5443E-14
2186.321533 7.2755E-14
2187.695312 7.0575E-14
2189.068848 7.5359E-14
2190.442627 7.6009E-14
2191.816406 7.6917E-14
2193.189941 8.0217E-14
2194.563721 8.4401E-14
2195.9375 8.5517E-14
2197.311035 8.4257E-14
2198.684814 8.5614E-14
2200.058594 8.1746E-14
2201.432129 8.1432E-14
2202.805908 8.7473E-14
2204.179688 8.8916E-14
2205.553223 8.512E-14
2206.927002 8.2599E-14
2208.300781 7.9405E-14
2209.674316 7.7187E-14
2211.048096 7.1509E-14
2212.421875 7.3974E-14
2213.795654 8.2197E-14
2215.169434 8.2363E-14
2216.542969 7.9361E-14
2217.916748 7.8044E-14
2219.290527 8.335E-14
2220.664307 8.7155E-14
2222.038086 8.7474E-14
2223.411621 8.9341E-14
2224.7854 8.9789E-14
2226.15918 9.1914E-14
2227.532959 9.3261E-14
2228.906738 9.2982E-14
2230.280518 9.5158E-14
2231.654297 9.5828E-14
2233.027832 9.6857E-14
2234.401611 9.7208E-14
2235.775391 1.0159E-13
2237.14917 1.006E-13
2238.522949 1.0348E-13
2239.896729 1.0232E-13
2241.270508 1.0083E-13
2242.644287 9.8307E-14
2244.018066 9.5639E-14
2245.391846 9.4012E-14
2246.765625 9.8518E-14
2248.139404 9.8659E-14
2249.513184 9.4441E-14
2250.886963 9.1859E-14
2252.260742 9.142E-14
2253.634277 9.2185E-14
2255.008057 9.1558E-14
2256.381836 9.399E-14
2257.755615 9.5457E-14
2259.129395 9.7954E-14
2260.503174 9.1501E-14
2261.876953 9.3074E-14
2263.250732 9.7995E-14
2264.624512 9.7004E-14
2265.998535 9.3807E-14
2267.372314 9.2664E-14
2268.746094 9.378E-14
2270.119873 9.5952E-14
2271.493652 9.8947E-14
2272.867432 1.0057E-13
2274.241211 1.0284E-13
2275.61499 9.8592E-14
2276.98877 9.8868E-14
2278.362549 1.0268E-13
2279.736328 1.0316E-13
2281.110107 1.067E-13
2282.483887 1.104E-13
2283.857666 1.047E-13
2285.231445 1.0991E-13
2286.605225 1.0501E-13
2287.979004 1.0368E-13
2289.352783 1.0375E-13
2290.726562 1.0305E-13
2292.100586 1.0501E-13
2293.474365 1.0606E-13
2294.848145 1.0646E-13
2296.221924 1.0551E-13
2297.595703 9.6293E-14
2298.969482 9.662E-14
2300.343262 1.0123E-13
2301.717041 1.0528E-13
2303.09082 1.0581E-13
2304.4646 1.0975E-13
2305.838379 1.1534E-13
2307.212158 1.1519E-13
2308.586182 1.1559E-13
2309.959961 1.1507E-13
2311.33374 1.1121E-13
2312.70752 1.0605E-13
2314.081299 1.0767E-13
2315.455078 1.1411E-13
2316.828857 1.161E-13
2318.202637 1.1753E-13
2319.576416 1.1512E-13
2320.950195 1.1527E-13
2322.323975 1.1834E-13
2323.697754 1.2222E-13
2325.071533 1.1912E-13
2326.445557 1.1335E-13
2327.819336 1.1433E-13
2329.193115 1.2221E-13
2330.566895 1.1569E-13
2331.940674 1.0989E-13
2333.314453 1.0807E-13
2334.688232 1.1621E-13
2336.062012 1.1748E-13
2337.435791 1.1236E-13
2338.80957 1.0701E-13
2340.18335 1.1516E-13
2341.557129 1.2002E-13
2342.930908 1.0435E-13
2344.304688 8.3552E-14
2345.678467 9.3453E-14
2347.052246 1.0189E-13
2348.426025 9.6627E-14
2349.799805 1.1531E-13
2351.173584 1.2519E-13
2352.547363 1.2989E-13
2353.921143 1.2794E-13
2355.295166 1.2073E-13
2356.668945 1.2604E-13
2358.042725 1.2813E-13
2359.416504 1.1252E-13
2360.790039 1.0736E-13
2362.163818 1.191E-13
2363.537598 1.2322E-13
2364.911377 1.1819E-13
2366.285156 1.22E-13
2367.658936 1.2327E-13
2369.032715 1.2785E-13
2370.406494 1.3317E-13
2371.780273 1.3534E-13
2373.154053 1.266E-13
2374.527832 1.1613E-13
2375.901611 1.2576E-13
2377.275391 1.3469E-13
2378.64917 1.2714E-13
2380.022949 1.1221E-13
2381.396729 9.3436E-14
2382.770508 7.6641E-14
2384.144043 9.6753E-14
2385.517822 1.2167E-13
2386.891602 1.2846E-13
2388.265381 1.1826E-13
2389.63916 1.1699E-13
2391.012939 1.3634E-13
2392.386719 1.4031E-13
2393.760254 1.3811E-13
2395.134033 1.1106E-13
2396.507812 1.071E-13
2397.881592 1.2795E-13
2399.255371 1.2143E-13
2400.628906 1.2945E-13
2402.002686 1.3652E-13
2403.376465 1.3129E-13
2404.750244 1.1316E-13
2406.124023 1.0856E-13
2407.497559 1.1557E-13
2408.871338 1.3184E-13
2410.245117 1.1923E-13
2411.618652 1.0784E-13
2412.992432 1.2121E-13
2414.366211 1.2841E-13
2415.73999 1.4482E-13
2417.113525 1.4919E-13
2418.487305 1.5244E-13
2419.861084 1.5903E-13
2421.234619 1.6408E-13
2422.608398 1.6284E-13
2423.981934 1.5113E-13
2425.355713 1.5215E-13
2426.729492 1.6082E-13
2428.103027 1.6117E-13
2429.476807 1.5617E-13
2430.850342 1.6311E-13
2432.224121 1.6501E-13
2433.597656 1.5789E-13
2434.971436 1.4866E-13
2436.345215 1.4896E-13
2437.71875 1.5396E-13
2439.092529 1.5126E-13
2440.466064 1.5505E-13
2441.8396 1.6503E-13
2443.213379 1.6262E-13
2444.586914 1.6285E-13
2445.960693 1.6217E-13
2447.334229 1.6643E-13
2448.708008 1.6599E-13
2450.081543 1.6225E-13
2451.455078 1.5701E-13
2452.828857 1.6017E-13
2454.202393 1.6412E-13
2455.575928 1.6796E-13
2456.949707 1.7197E-13
2458.323242 1.7217E-13
2459.696777 1.7057E-13
2461.070557 1.675E-13
2462.444092 1.5457E-13
2463.817627 1.5474E-13
2465.191162 1.5841E-13
2466.564941 1.6107E-13
2467.938477 1.6237E-13
2469.312012 1.6405E-13
2470.685547 1.6323E-13
2472.059082 1.614E-13
2473.432617 1.5257E-13
2474.806152 1.6313E-13
2476.179932 1.6491E-13
2477.553467 1.5738E-13
2478.927002 1.5407E-13
2480.300537 1.5262E-13
2481.674072 1.6435E-13
2483.047607 1.4696E-13
2484.421143 1.3783E-13
2485.794678 1.4585E-13
2487.168213 1.4663E-13
2488.541748 1.4169E-13
2489.915283 1.3496E-13
2491.288818 1.2827E-13
2492.662354 1.5282E-13
2494.035645 1.6612E-13
2495.40918 1.8028E-13
2496.782715 1.8151E-13
2498.15625 1.7964E-13
2499.529785 1.8297E-13
2500.90332 1.8013E-13
2502.276611 1.7429E-13
2503.650146 1.7646E-13
2505.023682 1.6597E-13
2506.397217 1.4791E-13
2507.770508 1.4477E-13
2509.144043 1.7582E-13
2510.517578 1.7471E-13
2511.890869 1.6255E-13
2513.264404 1.5726E-13
2514.637939 1.2579E-13
2516.01123 1.1E-13
2517.384766 1.1694E-13
2518.758057 1.2856E-13
2520.131592 1.4027E-13
2521.504883 1.5534E-13
2522.878418 1.3661E-13
2524.251709 1.216E-13
2525.625244 1.3223E-13
2526.998535 1.3174E-13
2528.371826 1.1941E-13
2529.745361 1.2023E-13
2531.118652 1.5576E-13
2532.492188 1.6745E-13
2533.865479 1.6975E-13
2535.23877 1.6528E-13
2536.612061 1.6061E-13
2537.985596 1.6707E-13
2539.358887 1.6866E-13
2540.732178 1.7114E-13
2542.105469 1.7103E-13
2543.47876 1.8167E-13
2544.852295 1.7382E-13
2546.225586 1.7143E-13
2547.598877 1.7719E-13
2548.972168 1.6597E-13
2550.345459 1.7329E-13
2551.71875 1.9336E-13
2553.092041 1.9941E-13
2554.465332 2.0749E-13
2555.838623 2.0347E-13
2557.211914 2.0597E-13
2558.585205 2.1116E-13
2559.958496 2.0901E-13
2561.331543 1.9945E-13
2562.704834 1.826E-13
2564.078125 1.8944E-13
2565.451416 2.109E-13
2566.824707 2.0952E-13
2568.197754 2.1003E-13
2569.571045 2.1057E-13
2570.944336 2.1228E-13
2572.317383 2.1139E-13
2573.690674 2.19E-13
2575.063965 2.1066E-13
2576.437012 1.9588E-13
2577.810303 2.0351E-13
2579.18335 2.201E-13
2580.556641 2.1671E-13
2581.929688 2.1537E-13
2583.302979 2.1186E-13
2584.676025 2.081E-13
2586.049316 1.7798E-13
2587.422363 2.0328E-13
2588.79541 2.2118E-13
2590.168701 2.2947E-13
2591.541748 2.2644E-13
2592.914795 2.2284E-13
2594.287842 2.1367E-13
2595.661133 2.2792E-13
2597.03418 2.1328E-13
2598.407227 1.5817E-13
2599.780273 1.58E-13
2601.15332 1.9152E-13
2602.526367 2.2659E-13
2603.899414 2.2966E-13
2605.272461 2.0623E-13
2606.645508 1.9029E-13
2608.018555 1.884E-13
2609.391602 2.0788E-13
2610.764648 1.9701E-13
2612.137695 1.6811E-13
2613.510742 1.7643E-13
2614.883789 1.924E-13
2616.256592 2.0994E-13
2617.629639 2.0713E-13
2619.002686 2.1026E-13
2620.375488 2.1744E-13
2621.748535 2.1844E-13
2623.121582 2.21E-13
2624.494385 2.2183E-13
2625.867432 2.1467E-13
2627.240234 2.0618E-13
2628.613281 1.9631E-13
2629.986084 1.8915E-13
2631.359131 1.7661E-13
2632.731934 2.0198E-13
2634.10498 2.385E-13
2635.477783 2.4851E-13
2636.850586 2.5288E-13
2638.223633 2.6255E-13
2639.596436 2.6628E-13
2640.969238 2.636E-13
2642.342041 2.6364E-13
2643.715088 2.6773E-13
2645.087891 2.6694E-13
2646.460693 2.6682E-13
2647.833496 2.6848E-13
2649.206299 2.7065E-13
2650.579102 2.7331E-13
2651.951904 2.719E-13
2653.324707 2.7296E-13
2654.69751 2.7752E-13
2656.070312 2.8079E-13
2657.442871 2.7203E-13
2658.815674 2.7332E-13
2660.188477 2.709E-13
2661.561279 2.6393E-13
2662.933838 2.599E-13
2664.306641 2.577E-13
2665.679443 2.5885E-13
2667.052002 2.4942E-13
2668.424805 2.5608E-13
2669.797363 2.6664E-13
2671.170166 2.6936E-13
2672.542725 2.6322E-13
2673.915527 2.7008E-13
2675.288086 2.7912E-13
2676.660889 2.7349E-13
2678.033447 2.5995E-13
2679.406006 2.567E-13
2680.778564 2.6842E-13
2682.151367 2.7469E-13
2683.523926 2.738E-13
2684.896484 2.7251E-13
2686.269043 2.7694E-13
2687.641602 2.7147E-13
2689.01416 2.6609E-13
2690.386719 2.6171E-13
2691.759277 2.6398E-13
2693.131836 2.6941E-13
2694.504395 2.6892E-13
2695.876953 2.6877E-13
2697.249512 2.7014E-13
2698.621826 2.6576E-13
2699.994385 2.7395E-13
2701.366943 2.7686E-13
2702.739502 2.7701E-13
2704.111816 2.8061E-13
2705.484375 2.7628E-13
2706.856689 2.7084E-13
2708.229248 2.7248E-13
2709.601562 2.7339E-13
2710.974121 2.7063E-13
2712.346436 2.6751E-13
2713.71875 2.7078E-13
2715.091309 2.6443E-13
2716.463623 2.6517E-13
2717.835938 2.6482E-13
2719.208252 2.5743E-13
2720.580811 2.5944E-13
2721.953125 2.6765E-13
2723.325439 2.6901E-13
2724.697754 2.6716E-13
2726.070068 2.6668E-13
2727.442383 2.6669E-13
2728.814697 2.6814E-13
2730.187012 2.8002E-13
2731.559326 2.7812E-13
2732.931396 2.7351E-13
2734.303711 2.6267E-13
2735.676025 2.6638E-13
2737.048096 2.5717E-13
2738.42041 2.5414E-13
2739.792725 2.5238E-13
2741.164795 2.52E-13
2742.537109 2.4766E-13
2743.90918 2.3626E-13
2745.281494 2.5165E-13
2746.653564 2.4462E-13
2748.025635 2.3455E-13
2749.397949 2.3435E-13
2750.77002 2.3498E-13
2752.14209 2.5825E-13
2753.51416 2.7627E-13
2754.886475 2.6331E-13
2756.258545 2.4759E-13
2757.630615 2.6006E-13
2759.002686 2.8645E-13
2760.374756 2.8942E-13
2761.746826 2.8719E-13
2763.118652 2.7484E-13
2764.490723 2.8924E-13
2765.862793 2.8678E-13
2767.234863 2.8355E-13
2768.606934 2.836E-13
2769.97876 2.8616E-13
2771.35083 2.965E-13
2772.722656 2.9485E-13
2774.094727 3.0157E-13
2775.466553 2.9306E-13
2776.838623 2.9067E-13
2778.210449 2.8346E-13
2779.58252 2.7742E-13
2780.954346 2.7986E-13
2782.326172 2.8145E-13
2783.697998 2.8441E-13
2785.069824 2.9E-13
2786.441895 2.8573E-13
2787.813721 2.7357E-13
2789.185547 2.5406E-13
2790.557373 2.3019E-13
2791.929199 1.8623E-13
2793.301025 1.3362E-13
2794.672607 7.876E-14
2796.044434 4.8122E-14
2797.41626 5.8685E-14
2798.788086 8.7992E-14
2800.159668 1.0505E-13
2801.531494 8.9207E-14
2802.903076 6.1248E-14
2804.274902 7.924E-14
2805.646484 1.4554E-13
2807.018311 2.0692E-13
2808.389893 2.5072E-13
2809.761719 2.767E-13
2811.133301 2.7668E-13
2812.504883 2.7589E-13
2813.876465 2.8576E-13
2815.248047 2.978E-13
2816.619629 2.9914E-13
2817.991211 3.0212E-13
2819.362793 3.0346E-13
2820.734375 3.0439E-13
2822.105957 3.0535E-13
2823.477539 3.0688E-13
2824.849121 3.0506E-13
2826.220703 3.0293E-13
2827.592041 3.0988E-13
2828.963623 3.0431E-13
2830.335205 3.046E-13
2831.706543 3.0899E-13
2833.078125 3.0397E-13
2834.449463 3.0889E-13
2835.820801 3.0089E-13
2837.192383 3.0559E-13
2838.563721 3.2049E-13
2839.935059 3.114E-13
2841.306396 3.0571E-13
2842.677979 3.0835E-13
2844.049316 2.9552E-13
2845.420654 3.097E-13
2846.791992 3.0709E-13
2848.16333 3.028E-13
2849.534668 2.8152E-13
2850.905762 2.3792E-13
2852.2771 1.6898E-13
2853.648438 2.0613E-13
2855.019775 2.7974E-13
2856.390869 2.9695E-13
2857.762207 3.1185E-13
2859.133301 3.1184E-13
2860.504639 3.2289E-13
2861.875732 3.199E-13
2863.246826 3.1926E-13
2864.618164 3.2341E-13
2865.989258 3.16E-13
2867.360352 3.1347E-13
2868.731445 3.1513E-13
2870.102539 3.2075E-13
2871.473633 3.3247E-13
2872.844727 3.3536E-13
2874.21582 3.2607E-13
2875.586914 3.1481E-13
2876.958008 3.0585E-13
2878.329102 3.1067E-13
2879.700195 3.0834E-13
2881.071045 2.7811E-13
2882.442139 2.637E-13
2883.812988 3.1161E-13
2885.184082 3.2985E-13
2886.554932 3.3937E-13
2887.926025 3.4767E-13
2889.296875 3.3905E-13
2890.667725 3.2842E-13
2892.038818 3.2428E-13
2893.409668 3.1161E-13
2894.780518 3.3295E-13
2896.151367 3.4036E-13
2897.522217 3.522E-13
2898.893066 3.5318E-13
2900.263916 3.6005E-13
2901.634521 3.6086E-13
2903.005371 3.6439E-13
2904.376221 3.638E-13
2905.74707 3.7013E-13
2907.117676 3.5514E-13
2908.488525 3.4184E-13
2909.859131 3.4182E-13
2911.22998 3.5181E-13
2912.600586 3.6008E-13
2913.971191 3.6331E-13
2915.342041 3.7292E-13
2916.712646 3.6323E-13
2918.083252 3.5434E-13
2919.453857 3.5272E-13
2920.824463 3.6298E-13
2922.195068 3.6822E-13
2923.565674 3.5841E-13
2924.936279 3.5366E-13
2926.306641 3.5627E-13
2927.677246 3.5797E-13
2929.047852 3.4934E-13
2930.418213 3.6543E-13
2931.788818 3.7513E-13
2933.15918 3.7411E-13
2934.529785 3.7239E-13
2935.900146 3.6414E-13
2937.270752 3.5022E-13
2938.641113 3.485E-13
2940.011475 3.5641E-13
2941.381836 3.6018E-13
2942.752197 3.6896E-13
2944.122559 3.6353E-13
2945.49292 3.5823E-13
2946.863281 3.684E-13
2948.233643 3.5276E-13
2949.604004 3.5621E-13
2950.974121 3.7151E-13
2952.344482 3.7364E-13
2953.714844 3.6365E-13
2955.084961 3.6616E-13
2956.455322 3.7967E-13
2957.825439 3.769E-13
2959.195557 3.8495E-13
2960.565918 3.7585E-13
2961.936035 3.8856E-13
2963.306152 3.8748E-13
2964.67627 3.6779E-13
2966.046387 3.6036E-13
2967.416504 3.5966E-13
2968.786621 3.6383E-13
2970.156738 3.4845E-13
2971.526611 3.5472E-13
2972.896729 3.652E-13
2974.266846 3.7705E-13
2975.636719 3.9103E-13
2977.006836 3.9503E-13
2978.376709 3.9836E-13
2979.746826 3.8936E-13
2981.116699 3.7983E-13
2982.486572 3.7658E-13
2983.856689 3.6245E-13
2985.226562 3.5275E-13
2986.596436 3.6194E-13
2987.966309 3.6794E-13
2989.336182 3.8829E-13
2990.706055 3.9771E-13
2992.075684 3.9692E-13
2993.445557 3.9276E-13
2994.81543 3.8386E-13
2996.185059 3.9921E-13
2997.554932 4.0862E-13
2998.924561 4.0175E-13
3000.294434 3.8772E-13
3001.664062 3.7657E-13
3003.033691 3.7105E-13
3004.403564 3.9153E-13
3005.773193 4.0395E-13
3007.142822 3.9456E-13
3008.512451 3.8738E-13
3009.88208 4.0053E-13
3011.251709 4.1134E-13
3012.621338 4.0897E-13
3013.990723 4.093E-13
3015.360352 4.0288E-13
3016.72998 3.9482E-13
3018.099365 3.8553E-13
3019.468994 3.712E-13
3020.838379 3.5145E-13
3022.207764 3.7843E-13
3023.577393 4.076E-13
3024.946777 3.9736E-13
3026.316162 3.9386E-13
3027.685547 4.1407E-13
3029.054932 4.2268E-13
3030.424316 4.1284E-13
3031.793701 4.0765E-13
3033.163086 4.1864E-13
3034.532471 4.2765E-13
3035.901611 4.2762E-13
3037.270996 4.1257E-13
3038.640137 4.0868E-13
3040.009521 4.2379E-13
3041.378662 4.0455E-13
3042.747803 3.9907E-13
3044.117188 4.0969E-13
3045.486328 4.152E-13
3046.855469 4.1911E-13
3048.224609 4.1484E-13
3049.59375 4.2231E-13
3050.962891 4.2651E-13
3052.332031 4.3282E-13
3053.700928 4.2364E-13
3055.070068 4.1667E-13
3056.439209 4.1314E-13
3057.808105 3.9101E-13
3059.177246 3.9706E-13
3060.546143 4.1246E-13
3067.141113 3.5684E-13
3069.886963 3.7654E-13
3072.633057 3.9352E-13
3075.378906 3.9551E-13
3078.125 3.9453E-13
3080.87085 3.936E-13
3083.616943 3.9945E-13
3086.363037 3.8315E-13
3089.108887 3.5967E-13
3091.85498 3.6E-13
3094.601074 3.6779E-13
3097.347168 3.6624E-13
3100.093506 3.6541E-13
3102.8396 3.9047E-13
3105.585693 4.0218E-13
3108.331787 4.1104E-13
3111.078125 4.1254E-13
3113.824219 4.0575E-13
3116.570557 3.9331E-13
3119.31665 3.8667E-13
3122.062988 3.8414E-13
3124.809326 3.8551E-13
3127.555664 3.9964E-13
3130.302002 4.0806E-13
3133.04834 4.1004E-13
3135.794678 4.0971E-13
3138.541016 3.9971E-13
3141.287354 3.8517E-13
3144.033691 3.6251E-13
3146.780273 3.9947E-13
3149.526611 4.1094E-13
3152.272949 4.1206E-13
3155.019531 4.019E-13
3157.766113 3.9475E-13
3160.512451 3.9441E-13
3163.259033 4.1086E-13
3166.005615 4.2573E-13
3168.752197 4.3628E-13
3171.498779 4.4429E-13
3174.245361 4.4732E-13
3176.991943 4.3475E-13
3179.738525 4.1204E-13
3182.485107 4.1404E-13
3185.231689 4.2485E-13
3187.978516 4.3162E-13
3190.725098 4.1579E-13
3193.47168 4.2613E-13
3196.218506 4.3671E-13
3198.965332 4.4717E-13
3201.711914 4.5485E-13
3204.45874 4.6814E-13
3207.205566 4.5845E-13
3209.952393 4.3839E-13
3212.698975 4.4023E-13
3215.445801 4.4561E-13
3218.192627 4.5517E-13
3220.939453 4.5835E-13
3223.686523 4.5685E-13
3226.43335 4.4634E-13
3229.180176 4.4258E-13
3231.927002 4.4262E-13
3234.674072 4.4576E-13
3237.420898 4.5759E-13
3240.167969 4.7112E-13
3242.914795 4.7721E-13
3245.661865 4.7298E-13
3248.408936 4.6567E-13
3251.155762 4.7428E-13
3253.902832 4.7902E-13
3256.649902 5.0322E-13
3259.396973 5.0468E-13
3262.144043 4.9781E-13
3264.891113 5.0122E-13
3267.638184 5.0561E-13
3270.385254 4.9805E-13
3273.132324 4.9684E-13
3275.879639 4.9219E-13
3278.626709 4.8714E-13
3281.373779 4.956E-13
3284.121094 5.0419E-13
3286.868164 5.0371E-13
3289.615479 5.1834E-13
3292.362549 5.2613E-13
3295.109863 5.3108E-13
3297.857178 5.3188E-13
3300.604248 5.2992E-13
3303.351562 5.1829E-13
3306.098877 5.1726E-13
3308.846191 5.2572E-13
3311.593506 5.3099E-13
3314.34082 5.2402E-13
3317.088135 5.145E-13
3319.835449 5.1553E-13
3322.582764 5.1284E-13
3325.330322 5.1837E-13
3328.077637 5.2061E-13
3330.824951 5.2048E-13
3333.57251 5.2084E-13
3336.319824 5.2111E-13
3339.067383 5.1833E-13
3341.814697 5.1712E-13
3344.562256 5.2783E-13
